; (content of file C:\DIFFDAT1\FPraktikum\WS1819\BA-C-04\Roentgen_Kristallin.raw)
_FILEVERSION = 2
_SAMPLE = Kristall
_+SAMPLE = 
_SITE = Münster
_USER = "Institut für Materialphysik"
_GONIOMETER_CODE = 0
; Goniometer : D5000 theta/2theta, stage : Unknown
_SAMPLE_CHANGER_CODE = 0
_ATTACHMENTS_CODE = 0
_GONIOMETER_RADIUS = 217.5
_FIXED_DIVSLIT = 0
_FIXED_SAMPLESLIT = 0
_FIXED_DETSLIT = 1
_MONOCHROMATOR = 0
; Incident beam monochromator : None
_SOLLER_SLITS_2 = N
_THIN_FILM = N
_BETA_FILTER = N
_FIXED_ANTISLIT = 0
_ANALYZER_CODE = 0
; Received beam analyzer : None
_DATEMEASURED = "07-Jan-2019 10:01:33"
_WL_UNIT = A
_WL1 = 1.5406
_WL2 = 1.54439
_WL3 = 1.39222
_WLRATIO = 0.5
_ANODE = Cu

; Data for range 1
_DRIVE = COUPLED
_STEPTIME = 2
_STEPSIZE = 0.02
_STEPMODE = C
_START = 20
_THETA = 10
_2THETA = 20
_KHI = 0
_PHI = 0
_X = 0
_Y = 0
_Z = 0
_DIVERGENCE = 0.992
_ANTISCATTER = 0.499
_DETECTOR = 1
; Detector type : Scintillation counter
_HV = 950
_GAIN = 80
_LLD = 0.8
_ULD = 1.6
_DETECTORSLIT = out
_AUX1 = 0
_AUX2 = 0
_AUX3 = 0
_TIMESTARTED = 8
_ROTATION_SPEED = 30
_TEMP_RATE = -1
_TEMP_DELAY = -1
_RANGE_WL = 1.5406
_3DPLANE = 0
_V4_COUNTERS_MASK = 1
_V4_DRIVES_MASK = 0
_V4_ENCODERS_MASK = 0
_2THETACOUNTS = 1
; 2THETA  Cnt1_D1
  20.0000          4
  20.0200          4
  20.0400          1
  20.0600          5
  20.0800          4
  20.1000          2
  20.1200          5
  20.1400          6
  20.1600          7
  20.1800          4
  20.2000          3
  20.2200          4
  20.2400          2
  20.2600          3
  20.2800          4
  20.3000          4
  20.3200          2
  20.3400          3
  20.3600          4
  20.3800          5
  20.4000          5
  20.4200          4
  20.4400         11
  20.4600          4
  20.4800          9
  20.5000          4
  20.5200          5
  20.5400          5
  20.5600          4
  20.5800          4
  20.6000          0
  20.6200          7
  20.6400          7
  20.6600          6
  20.6800          5
  20.7000          2
  20.7200          2
  20.7400          9
  20.7600          2
  20.7800          3
  20.8000          4
  20.8200          8
  20.8400          4
  20.8600          8
  20.8800          4
  20.9000          9
  20.9200          4
  20.9400          6
  20.9600          2
  20.9800          1
  21.0000          7
  21.0200          5
  21.0400          8
  21.0600          5
  21.0800          4
  21.1000          8
  21.1200          5
  21.1400          9
  21.1600          8
  21.1800          7
  21.2000          8
  21.2200          6
  21.2400          6
  21.2600          6
  21.2800          8
  21.3000          7
  21.3200          4
  21.3400          7
  21.3600         10
  21.3800         10
  21.4000          9
  21.4200         10
  21.4400         16
  21.4600          9
  21.4800         15
  21.5000          5
  21.5200         10
  21.5400          9
  21.5600          7
  21.5800          6
  21.6000          5
  21.6200         12
  21.6400         10
  21.6600          5
  21.6800          6
  21.7000          2
  21.7200          5
  21.7400          5
  21.7600          4
  21.7800          4
  21.8000          6
  21.8200          5
  21.8400          5
  21.8600         10
  21.8800          3
  21.9000          2
  21.9200          2
  21.9400          3
  21.9600          3
  21.9800          2
  22.0000          3
  22.0200          3
  22.0400          8
  22.0600          3
  22.0800          6
  22.1000          3
  22.1200          1
  22.1400          7
  22.1600          3
  22.1800          6
  22.2000          5
  22.2200          3
  22.2400          4
  22.2600          3
  22.2800          7
  22.3000          3
  22.3200          3
  22.3400          4
  22.3600          0
  22.3800          7
  22.4000          8
  22.4200          2
  22.4400          4
  22.4600          4
  22.4800          6
  22.5000          1
  22.5200          8
  22.5400          3
  22.5600          6
  22.5800          4
  22.6000          6
  22.6200          4
  22.6400          4
  22.6600          6
  22.6800          2
  22.7000          3
  22.7200          4
  22.7400          2
  22.7600          5
  22.7800          3
  22.8000          8
  22.8200          3
  22.8400          2
  22.8600          6
  22.8800          2
  22.9000          1
  22.9200          6
  22.9400          3
  22.9600          8
  22.9800          2
  23.0000          3
  23.0200          1
  23.0400          5
  23.0600          5
  23.0800          5
  23.1000          3
  23.1200          6
  23.1400          6
  23.1600          4
  23.1800          8
  23.2000          0
  23.2200          5
  23.2400          3
  23.2600          5
  23.2800          3
  23.3000          4
  23.3200          3
  23.3400          6
  23.3600          1
  23.3800          2
  23.4000          3
  23.4200          5
  23.4400          4
  23.4600          6
  23.4800          3
  23.5000          4
  23.5200          3
  23.5400          1
  23.5600          0
  23.5800          3
  23.6000          4
  23.6200          3
  23.6400          3
  23.6600          3
  23.6800          2
  23.7000          4
  23.7200          3
  23.7400          1
  23.7600          4
  23.7800          5
  23.8000          3
  23.8200          3
  23.8400          5
  23.8600          3
  23.8800          2
  23.9000          3
  23.9200          3
  23.9400          3
  23.9600          4
  23.9800          5
  24.0000          5
  24.0200          1
  24.0400          7
  24.0600          5
  24.0800          3
  24.1000          9
  24.1200          3
  24.1400          7
  24.1600          6
  24.1800          7
  24.2000          3
  24.2200          6
  24.2400          1
  24.2600          4
  24.2800          2
  24.3000          6
  24.3200          2
  24.3400          0
  24.3600          2
  24.3800          3
  24.4000          3
  24.4200          4
  24.4400          7
  24.4600          5
  24.4800          2
  24.5000          2
  24.5200          7
  24.5400          3
  24.5600          4
  24.5800          2
  24.6000          3
  24.6200          4
  24.6400          3
  24.6600          1
  24.6800          2
  24.7000          4
  24.7200          5
  24.7400          8
  24.7600          6
  24.7800          2
  24.8000          2
  24.8200          4
  24.8400          5
  24.8600          1
  24.8800          1
  24.9000          4
  24.9200          1
  24.9400          6
  24.9600          4
  24.9800          5
  25.0000          3
  25.0200          3
  25.0400          2
  25.0600          4
  25.0800          2
  25.1000          1
  25.1200          0
  25.1400          5
  25.1600          2
  25.1800          6
  25.2000          6
  25.2200          6
  25.2400          3
  25.2600          4
  25.2800          1
  25.3000          4
  25.3200          7
  25.3400          7
  25.3600          6
  25.3800          3
  25.4000          2
  25.4200         12
  25.4400          6
  25.4600          2
  25.4800          6
  25.5000          7
  25.5200          5
  25.5400          5
  25.5600          2
  25.5800          1
  25.6000          2
  25.6200          4
  25.6400          3
  25.6600          0
  25.6800          5
  25.7000          4
  25.7200          2
  25.7400          5
  25.7600          1
  25.7800          2
  25.8000          7
  25.8200          5
  25.8400          3
  25.8600          3
  25.8800          1
  25.9000          3
  25.9200          4
  25.9400          2
  25.9600          4
  25.9800          2
  26.0000          5
  26.0200          4
  26.0400          1
  26.0600          4
  26.0800          5
  26.1000          2
  26.1200          4
  26.1400          3
  26.1600          1
  26.1800          3
  26.2000          5
  26.2200          3
  26.2400          3
  26.2600          5
  26.2800          2
  26.3000          3
  26.3200          5
  26.3400          0
  26.3600          3
  26.3800          3
  26.4000          4
  26.4200          3
  26.4400          4
  26.4600          3
  26.4800          4
  26.5000          4
  26.5200          4
  26.5400          6
  26.5600          2
  26.5800          4
  26.6000          2
  26.6200          2
  26.6400          1
  26.6600          5
  26.6800          5
  26.7000          7
  26.7200          1
  26.7400          3
  26.7600          7
  26.7800          3
  26.8000          3
  26.8200          2
  26.8400          3
  26.8600          2
  26.8800          2
  26.9000          5
  26.9200          3
  26.9400          4
  26.9600          1
  26.9800          3
  27.0000          8
  27.0200          4
  27.0400          5
  27.0600          4
  27.0800          8
  27.1000          1
  27.1200          1
  27.1400          6
  27.1600          3
  27.1800          3
  27.2000          6
  27.2200          5
  27.2400          4
  27.2600          1
  27.2800          7
  27.3000          3
  27.3200          4
  27.3400         11
  27.3600         11
  27.3800         10
  27.4000         10
  27.4200          9
  27.4400         11
  27.4600         10
  27.4800          6
  27.5000         16
  27.5200         13
  27.5400         10
  27.5600          1
  27.5800          7
  27.6000          4
  27.6200          3
  27.6400          4
  27.6600          0
  27.6800          3
  27.7000          2
  27.7200          9
  27.7400          2
  27.7600          3
  27.7800          2
  27.8000          4
  27.8200          3
  27.8400          5
  27.8600          2
  27.8800          5
  27.9000          1
  27.9200          3
  27.9400          3
  27.9600          4
  27.9800          2
  28.0000          6
  28.0200          4
  28.0400          3
  28.0600          4
  28.0800          7
  28.1000          4
  28.1200          9
  28.1400          9
  28.1600          6
  28.1800         12
  28.2000          6
  28.2200          7
  28.2400          9
  28.2600          5
  28.2800          9
  28.3000          4
  28.3200          4
  28.3400          4
  28.3600          6
  28.3800          4
  28.4000          4
  28.4200          2
  28.4400          4
  28.4600          2
  28.4800          0
  28.5000          1
  28.5200          5
  28.5400          2
  28.5600          3
  28.5800          3
  28.6000          6
  28.6200          1
  28.6400          2
  28.6600          1
  28.6800          0
  28.7000          3
  28.7200          4
  28.7400          4
  28.7600          2
  28.7800          5
  28.8000          4
  28.8200          3
  28.8400          5
  28.8600          3
  28.8800          2
  28.9000          4
  28.9200          4
  28.9400          4
  28.9600          3
  28.9800          4
  29.0000          5
  29.0200          0
  29.0400          6
  29.0600          2
  29.0800          2
  29.1000          1
  29.1200          6
  29.1400          5
  29.1600          3
  29.1800          1
  29.2000          2
  29.2200          3
  29.2400          1
  29.2600          1
  29.2800          2
  29.3000          3
  29.3200          3
  29.3400          0
  29.3600          1
  29.3800          4
  29.4000          0
  29.4200          1
  29.4400          2
  29.4600          8
  29.4800          4
  29.5000          2
  29.5200          1
  29.5400          3
  29.5600          1
  29.5800          1
  29.6000          1
  29.6200          4
  29.6400          0
  29.6600          3
  29.6800          2
  29.7000          6
  29.7200          2
  29.7400          4
  29.7600          5
  29.7800          6
  29.8000          3
  29.8200          4
  29.8400          4
  29.8600          3
  29.8800          2
  29.9000          0
  29.9200          3
  29.9400          2
  29.9600          1
  29.9800          3
  30.0000          3
  30.0200          4
  30.0400          1
  30.0600          0
  30.0800          3
  30.1000          1
  30.1200          2
  30.1400          6
  30.1600          3
  30.1800          4
  30.2000          3
  30.2200          1
  30.2400          5
  30.2600          0
  30.2800          2
  30.3000          4
  30.3200          4
  30.3400          4
  30.3600          4
  30.3800          1
  30.4000          2
  30.4200          2
  30.4400          4
  30.4600          5
  30.4800          1
  30.5000          1
  30.5200          4
  30.5400          1
  30.5600          2
  30.5800          3
  30.6000          5
  30.6200          3
  30.6400          2
  30.6600          6
  30.6800          1
  30.7000          2
  30.7200          3
  30.7400          3
  30.7600          0
  30.7800          0
  30.8000          9
  30.8200          1
  30.8400          3
  30.8600          1
  30.8800          3
  30.9000          2
  30.9200          5
  30.9400          4
  30.9600          3
  30.9800          1
  31.0000          3
  31.0200          4
  31.0400          3
  31.0600          1
  31.0800          2
  31.1000          2
  31.1200          0
  31.1400          1
  31.1600          3
  31.1800          5
  31.2000          3
  31.2200          3
  31.2400          5
  31.2600          4
  31.2800          6
  31.3000          2
  31.3200         11
  31.3400         12
  31.3600          7
  31.3800          8
  31.4000          8
  31.4200         10
  31.4400          7
  31.4600          3
  31.4800          4
  31.5000          6
  31.5200          4
  31.5400          6
  31.5600          4
  31.5800          5
  31.6000          5
  31.6200          7
  31.6400          6
  31.6600         10
  31.6800          6
  31.7000          5
  31.7200          4
  31.7400          9
  31.7600          3
  31.7800          7
  31.8000          9
  31.8200          8
  31.8400          6
  31.8600          5
  31.8800          5
  31.9000          2
  31.9200          4
  31.9400          2
  31.9600          6
  31.9800          2
  32.0000          5
  32.0200          3
  32.0400          2
  32.0600          1
  32.0800          3
  32.1000          4
  32.1200          2
  32.1400          0
  32.1600          6
  32.1800          3
  32.2000          3
  32.2200          6
  32.2400          1
  32.2600          5
  32.2800          2
  32.3000          0
  32.3200          3
  32.3400          3
  32.3600          3
  32.3800          3
  32.4000          3
  32.4200          4
  32.4400          2
  32.4600          1
  32.4800          2
  32.5000          1
  32.5200          3
  32.5400          2
  32.5600          5
  32.5800          3
  32.6000          2
  32.6200          2
  32.6400          3
  32.6600          1
  32.6800          0
  32.7000          2
  32.7200          2
  32.7400          5
  32.7600          2
  32.7800          1
  32.8000          3
  32.8200          7
  32.8400          0
  32.8600          2
  32.8800          6
  32.9000          3
  32.9200          0
  32.9400          2
  32.9600          2
  32.9800          1
  33.0000          2
  33.0200          3
  33.0400          4
  33.0600          1
  33.0800          4
  33.1000          5
  33.1200          3
  33.1400          2
  33.1600          2
  33.1800          4
  33.2000          2
  33.2200          2
  33.2400          1
  33.2600          3
  33.2800          3
  33.3000          0
  33.3200          0
  33.3400          4
  33.3600          1
  33.3800          1
  33.4000          7
  33.4200          4
  33.4400          0
  33.4600          6
  33.4800          5
  33.5000          3
  33.5200          5
  33.5400          2
  33.5600          4
  33.5800          7
  33.6000          5
  33.6200          6
  33.6400          9
  33.6600          8
  33.6800          3
  33.7000         16
  33.7200         17
  33.7400          3
  33.7600          8
  33.7800          8
  33.8000          8
  33.8200          8
  33.8400          5
  33.8600          6
  33.8800          4
  33.9000          4
  33.9200          1
  33.9400          4
  33.9600          2
  33.9800          3
  34.0000          5
  34.0200          4
  34.0400          3
  34.0600          1
  34.0800          4
  34.1000          6
  34.1200          7
  34.1400          2
  34.1600          3
  34.1800          1
  34.2000          4
  34.2200          1
  34.2400          4
  34.2600          6
  34.2800          2
  34.3000          3
  34.3200          1
  34.3400          4
  34.3600          0
  34.3800          1
  34.4000          4
  34.4200          2
  34.4400          3
  34.4600          1
  34.4800          1
  34.5000          1
  34.5200          3
  34.5400          2
  34.5600          2
  34.5800          2
  34.6000          4
  34.6200          4
  34.6400          5
  34.6600          4
  34.6800          5
  34.7000          6
  34.7200          5
  34.7400          7
  34.7600          4
  34.7800          7
  34.8000         13
  34.8200         10
  34.8400          9
  34.8600         14
  34.8800         11
  34.9000         12
  34.9200         18
  34.9400         13
  34.9600          7
  34.9800          8
  35.0000          6
  35.0200          3
  35.0400          2
  35.0600          9
  35.0800          6
  35.1000          7
  35.1200          6
  35.1400          3
  35.1600          8
  35.1800          9
  35.2000         12
  35.2200          5
  35.2400         11
  35.2600          7
  35.2800          7
  35.3000          5
  35.3200          7
  35.3400          4
  35.3600          6
  35.3800          2
  35.4000          3
  35.4200          7
  35.4400          6
  35.4600          6
  35.4800          6
  35.5000          1
  35.5200          1
  35.5400          3
  35.5600          2
  35.5800          4
  35.6000          7
  35.6200          3
  35.6400          4
  35.6600          1
  35.6800          6
  35.7000          5
  35.7200          1
  35.7400          7
  35.7600          3
  35.7800          3
  35.8000          6
  35.8200          4
  35.8400          3
  35.8600          3
  35.8800          3
  35.9000          6
  35.9200          8
  35.9400          8
  35.9600          9
  35.9800          2
  36.0000         11
  36.0200         12
  36.0400         11
  36.0600         10
  36.0800          6
  36.1000          4
  36.1200          8
  36.1400          7
  36.1600          6
  36.1800          7
  36.2000          3
  36.2200          3
  36.2400          7
  36.2600          3
  36.2800          7
  36.3000          2
  36.3200          3
  36.3400          2
  36.3600          4
  36.3800          3
  36.4000          2
  36.4200          0
  36.4400          4
  36.4600          2
  36.4800          5
  36.5000          5
  36.5200          4
  36.5400          1
  36.5600          3
  36.5800          4
  36.6000          3
  36.6200          3
  36.6400          6
  36.6600          1
  36.6800          6
  36.7000          4
  36.7200          5
  36.7400          4
  36.7600          3
  36.7800          7
  36.8000          4
  36.8200          2
  36.8400          3
  36.8600          9
  36.8800          5
  36.9000          4
  36.9200          4
  36.9400          7
  36.9600          9
  36.9800          5
  37.0000         10
  37.0200          9
  37.0400         20
  37.0600         17
  37.0800         21
  37.1000         22
  37.1200         21
  37.1400         15
  37.1600         21
  37.1800         25
  37.2000         21
  37.2200         13
  37.2400         14
  37.2600         16
  37.2800         14
  37.3000         12
  37.3200          6
  37.3400          6
  37.3600          8
  37.3800          8
  37.4000          4
  37.4200          5
  37.4400          9
  37.4600          0
  37.4800          1
  37.5000          7
  37.5200          7
  37.5400          3
  37.5600          5
  37.5800          2
  37.6000          6
  37.6200          5
  37.6400          4
  37.6600          6
  37.6800          2
  37.7000          4
  37.7200          1
  37.7400          5
  37.7600          4
  37.7800          4
  37.8000          5
  37.8200          6
  37.8400          7
